Wavelength	n	k
1.53846	1.44325	0.00002
1.53941	1.44324	0.00002
1.54036	1.44323	0.00002
1.54131	1.44322	0.00002
1.54226	1.44321	0.00002
1.54321	1.4432	0.00002
1.54416	1.44319	0.00002
1.54512	1.44318	0.00002
1.54607	1.44317	0.00002
1.54703	1.44316	0.00002
1.54799	1.44315	0.00002
1.54895	1.44314	0.00002
1.54991	1.44313	0.00002
1.55087	1.44312	0.00002
1.55183	1.44311	0.00002
1.5528	1.44311	0.00002
1.55376	1.4431	0.00002
1.55473	1.44309	0.00002
1.55569	1.44308	0.00002
1.55666	1.44307	0.00002
1.55763	1.44306	0.00002
1.5586	1.44305	0.00002
1.55958	1.44304	0.00002
1.56055	1.44303	0.00002
1.56152	1.44302	0.00002
1.5625	1.44301	0.00002
1.56348	1.443	0.00002
1.56446	1.44299	0.00002
1.56544	1.44298	0.00002
1.56642	1.44297	0.00002
1.5674	1.44296	0.00002
1.56838	1.44295	0.00002
1.56937	1.44294	0.00002
1.57035	1.44293	0.00002
1.57134	1.44292	0.00002
1.57233	1.44291	0.00002
1.57332	1.4429	0.00002
1.57431	1.44289	0.00002
1.5753	1.44288	0.00002
1.57629	1.44287	0.00002
1.57729	1.44286	0.00002
1.57828	1.44285	0.00002
1.57928	1.44284	0.00002
1.58028	1.44283	0.00002
1.58128	1.44282	0.00002
1.58228	1.44281	0.00002
1.58328	1.4428	0.00002
1.58428	1.44279	0.00002
1.58529	1.44278	0.00002
1.58629	1.44277	0.00002
1.5873	1.44276	0.00002
1.58831	1.44275	0.00002
1.58932	1.44274	0.00002
1.59033	1.44273	0.00002
1.59134	1.44272	0.00002
1.59236	1.44271	0.00002
1.59337	1.4427	0.00002
1.59439	1.44269	0.00002
1.59541	1.44267	0.00002
1.59642	1.44266	0.00002
1.59744	1.44265	0.00002
1.59847	1.44264	0.00002
1.59949	1.44263	0.00002
1.60051	1.44262	0.00002
1.60154	1.44261	0.00002
1.60256	1.4426	0.00002
1.60359	1.44259	0.00002
1.60462	1.44258	0.00002
1.60565	1.44257	0.00002
1.60668	1.44256	0.00002
1.60772	1.44255	0.00002
1.60875	1.44254	0.00002
1.60979	1.44253	0.00002
1.61082	1.44252	0.00002
1.61186	1.4425	0.00002
1.6129	1.44249	0.00002
1.61394	1.44248	0.00002
1.61499	1.44247	0.00002
1.61603	1.44246	0.00002
1.61708	1.44245	0.00002
1.61812	1.44244	0.00002
1.61917	1.44243	0.00002
1.62022	1.44242	0.00002
1.62127	1.44241	0.00002
1.62232	1.4424	0.00002
1.62338	1.44239	0.00002
1.62443	1.44237	0.00002
1.62549	1.44236	0.00002
1.62655	1.44235	0.00002
1.6276	1.44234	0.00002
1.62866	1.44233	0.00002
1.62973	1.44232	0.00002
1.63079	1.44231	0.00002
1.63185	1.4423	0.00002
1.63292	1.44228	0.00002
1.63399	1.44227	0.00002
1.63506	1.44226	0.00002
1.63613	1.44225	0.00002
1.6372	1.44224	0.00002
1.63827	1.44223	0.00002
1.63934	1.44222	0.00002
1.64042	1.44221	0.00002
1.6415	1.44219	0.00002
1.64258	1.44218	0.00002
1.64366	1.44217	0.00002
1.64474	1.44216	0.00002
1.64582	1.44215	0.00002
1.6469	1.44214	0.00002
1.64799	1.44213	0.00002
1.64908	1.44211	0.00002
1.65017	1.4421	0.00002
1.65125	1.44209	0.00002
1.65235	1.44208	0.00002
1.65344	1.44207	0.00002
1.65453	1.44206	0.00002
1.65563	1.44204	0.00002
1.65673	1.44203	0.00002
1.65782	1.44202	0.00002
1.65893	1.44201	0.00002
1.66003	1.442	0.00002
1.66113	1.44199	0.00002
1.66223	1.44197	0.00002
1.66334	1.44196	0.00002
1.66445	1.44195	0.00002
1.66556	1.44194	0.00002
1.66667	1.44193	0.00002
1.66778	1.44191	0.00002
1.66889	1.4419	0.00002
1.67001	1.44189	0.00002
1.67112	1.44188	0.00002
1.67224	1.44187	0.00002
1.67336	1.44185	0.00002
1.67448	1.44184	0.00002
1.6756	1.44183	0.00002
1.67673	1.44182	0.00002
1.67785	1.4418	0.00002
1.67898	1.44179	0.00002
1.68011	1.44178	0.00002
1.68124	1.44177	0.00002
1.68237	1.44176	0.00002
1.6835	1.44174	0.00002
1.68464	1.44173	0.00002
1.68577	1.44172	0.00002
1.68691	1.44171	0.00002
1.68805	1.44169	0.00002
1.68919	1.44168	0.00002
1.69033	1.44167	0.00002
1.69147	1.44166	0.00002
1.69262	1.44164	0.00002
1.69377	1.44163	0.00002
1.69492	1.44162	0.00002
1.69607	1.44161	0.00002
1.69722	1.44159	0.00002
1.69837	1.44158	0.00002
1.69952	1.44157	0.00002
1.70068	1.44156	0.00002
1.70184	1.44154	0.00002
1.703	1.44153	0.00002
1.70416	1.44152	0.00002
1.70532	1.4415	0.00002
1.70648	1.44149	0.00002
1.70765	1.44148	0.00002
1.70882	1.44147	0.00002
1.70999	1.44145	0.00002
1.71116	1.44144	0.00002
1.71233	1.44143	0.00002
1.7135	1.44141	0.00002
1.71468	1.4414	0.00002
1.71585	1.44139	0.00002
1.71703	1.44137	0.00002
1.71821	1.44136	0.00002
1.71939	1.44135	0.00002
1.72058	1.44133	0.00002
1.72176	1.44132	0.00002
1.72295	1.44131	0.00002
1.72414	1.4413	0.00002
1.72533	1.44128	0.00002
1.72652	1.44127	0.00002
1.72771	1.44126	0.00002
1.72891	1.44124	0.00002
1.7301	1.44123	0.00002
1.7313	1.44121	0.00002
1.7325	1.4412	0.00002
1.7337	1.44119	0.00002
1.73491	1.44117	0.00003
1.73611	1.44116	0.00003
1.73732	1.44115	0.00003
1.73853	1.44113	0.00003
1.73974	1.44112	0.00003
1.74095	1.44111	0.00003
1.74216	1.44109	0.00003
1.74338	1.44108	0.00003
1.74459	1.44107	0.00003
1.74581	1.44105	0.00003
1.74703	1.44104	0.00003
1.74825	1.44102	0.00003
1.74948	1.44101	0.00003
1.7507	1.441	0.00003
1.75193	1.44098	0.00003
1.75316	1.44097	0.00003
1.75439	1.44095	0.00003
1.75562	1.44094	0.00003
1.75685	1.44093	0.00003
1.75809	1.44091	0.00003
1.75932	1.4409	0.00003
1.76056	1.44088	0.00003
1.7618	1.44087	0.00003
1.76305	1.44085	0.00003
1.76429	1.44084	0.00003
1.76554	1.44083	0.00003
1.76678	1.44081	0.00003
1.76803	1.4408	0.00003
1.76929	1.44078	0.00003
1.77054	1.44077	0.00003
1.77179	1.44075	0.00003
1.77305	1.44074	0.00003
1.77431	1.44073	0.00003
1.77557	1.44071	0.00003
1.77683	1.4407	0.00003
1.77809	1.44068	0.00003
1.77936	1.44067	0.00003
1.78063	1.44065	0.00003
1.7819	1.44064	0.00003
1.78317	1.44062	0.00003
1.78444	1.44061	0.00003
1.78571	1.44059	0.00003
1.78699	1.44058	0.00003
1.78827	1.44056	0.00003
1.78955	1.44055	0.00003
1.79083	1.44053	0.00003
1.79211	1.44052	0.00003
1.7934	1.4405	0.00003
1.79469	1.44049	0.00003
1.79598	1.44047	0.00003
1.79727	1.44046	0.00003
1.79856	1.44044	0.00003
1.79986	1.44043	0.00003
1.80115	1.44041	0.00003
1.80245	1.4404	0.00003
1.80375	1.44038	0.00003
1.80505	1.44037	0.00003
1.80636	1.44035	0.00003
1.80766	1.44034	0.00003
1.80897	1.44032	0.00003
1.81028	1.4403	0.00003
1.81159	1.44029	0.00003
1.81291	1.44027	0.00003
1.81422	1.44026	0.00003
1.81554	1.44024	0.00003
1.81686	1.44023	0.00003
1.81818	1.44021	0.00003
1.81951	1.4402	0.00003
1.82083	1.44018	0.00003
1.82216	1.44016	0.00003
1.82349	1.44015	0.00003
1.82482	1.44013	0.00003
1.82615	1.44012	0.00003
1.82749	1.4401	0.00003
1.82882	1.44008	0.00003
1.83016	1.44007	0.00003
1.8315	1.44005	0.00003
1.83284	1.44004	0.00003
1.83419	1.44002	0.00003
1.83554	1.44	0.00003
1.83688	1.43999	0.00003
1.83824	1.43997	0.00003
1.83959	1.43996	0.00003
1.84094	1.43994	0.00003
1.8423	1.43992	0.00003
1.84366	1.43991	0.00003
1.84502	1.43989	0.00003
1.84638	1.43987	0.00003
1.84775	1.43986	0.00003
1.84911	1.43984	0.00003
1.85048	1.43982	0.00003
1.85185	1.43981	0.00003
1.85322	1.43979	0.00003
1.8546	1.43977	0.00003
1.85598	1.43976	0.00003
1.85736	1.43974	0.00003
1.85874	1.43972	0.00003
1.86012	1.43971	0.00003
1.8615	1.43969	0.00003
1.86289	1.43967	0.00003
1.86428	1.43966	0.00003
1.86567	1.43964	0.00003
1.86706	1.43962	0.00003
1.86846	1.43961	0.00003
1.86986	1.43959	0.00003
1.87126	1.43957	0.00003
1.87266	1.43955	0.00003
1.87406	1.43954	0.00003
1.87547	1.43952	0.00003
1.87688	1.4395	0.00003
1.87829	1.43948	0.00003
1.8797	1.43947	0.00003
1.88111	1.43945	0.00003
1.88253	1.43943	0.00003
1.88395	1.43941	0.00003
1.88537	1.4394	0.00003
1.88679	1.43938	0.00003
1.88822	1.43936	0.00003
1.88964	1.43934	0.00003
1.89107	1.43933	0.00003
1.89251	1.43931	0.00003
1.89394	1.43929	0.00003
1.89538	1.43927	0.00003
1.89681	1.43925	0.00003
1.89825	1.43924	0.00003
1.8997	1.43922	0.00003
1.90114	1.4392	0.00003
1.90259	1.43918	0.00003
1.90404	1.43916	0.00003
1.90549	1.43915	0.00003
1.90694	1.43913	0.00003
1.9084	1.43911	0.00003
1.90985	1.43909	0.00003
1.91131	1.43907	0.00003
1.91278	1.43906	0.00003
1.91424	1.43904	0.00003
1.91571	1.43902	0.00003
1.91718	1.439	0.00003
1.91865	1.43898	0.00003
1.92012	1.43896	0.00003
1.9216	1.43894	0.00003
1.92308	1.43893	0.00003
1.92456	1.43891	0.00003
1.92604	1.43889	0.00003
1.92753	1.43887	0.00003
1.92901	1.43885	0.00003
1.9305	1.43883	0.00003
1.93199	1.43881	0.00003
1.93349	1.43879	0.00003
1.93498	1.43877	0.00003
1.93648	1.43875	0.00004
1.93798	1.43874	0.00004
1.93949	1.43872	0.00004
1.94099	1.4387	0.00004
1.9425	1.43868	0.00004
1.94401	1.43866	0.00004
1.94553	1.43864	0.00004
1.94704	1.43862	0.00004
1.94856	1.4386	0.00004
1.95008	1.43858	0.00004
1.9516	1.43856	0.00004
1.95313	1.43854	0.00004
1.95465	1.43852	0.00004
1.95618	1.4385	0.00004
1.95771	1.43848	0.00004
1.95925	1.43846	0.00004
1.96078	1.43844	0.00004
1.96232	1.43842	0.00004
1.96386	1.4384	0.00004
1.96541	1.43838	0.00004
1.96696	1.43836	0.00004
1.9685	1.43834	0.00004
1.97006	1.43832	0.00004
1.97161	1.4383	0.00004
1.97316	1.43828	0.00004
1.97472	1.43826	0.00004
1.97628	1.43824	0.00004
1.97785	1.43822	0.00004
1.97941	1.4382	0.00004
1.98098	1.43818	0.00004
1.98255	1.43816	0.00004
1.98413	1.43814	0.00004
1.9857	1.43812	0.00004
1.98728	1.4381	0.00004
1.98886	1.43808	0.00004
1.99045	1.43806	0.00004
1.99203	1.43803	0.00004
1.99362	1.43801	0.00004
1.99521	1.43799	0.00004
1.99681	1.43797	0.00004
1.9984	1.43795	0.00004
2	1.43793	0.00004
2.0016	1.43791	0.00004
2.00321	1.43789	0.00004
2.00481	1.43787	0.00004
2.00642	1.43784	0.00004
2.00803	1.43782	0.00004
2.00965	1.4378	0.00004
2.01126	1.43778	0.00004
2.01288	1.43776	0.00004
2.0145	1.43774	0.00004
2.01613	1.43771	0.00004
2.01776	1.43769	0.00004
2.01939	1.43767	0.00004
2.02102	1.43765	0.00004
2.02265	1.43763	0.00004
2.02429	1.4376	0.00004
2.02593	1.43758	0.00004
2.02758	1.43756	0.00004
2.02922	1.43754	0.00004
2.03087	1.43752	0.00004
2.03252	1.43749	0.00004
2.03417	1.43747	0.00004
2.03583	1.43745	0.00004
2.03749	1.43743	0.00004
2.03915	1.4374	0.00004
2.04082	1.43738	0.00004
2.04248	1.43736	0.00004
2.04415	1.43734	0.00004
2.04583	1.43731	0.00004
2.0475	1.43729	0.00004
2.04918	1.43727	0.00004
2.05086	1.43725	0.00004
2.05255	1.43722	0.00004
2.05423	1.4372	0.00004
2.05592	1.43718	0.00004
2.05761	1.43715	0.00004
2.05931	1.43713	0.00004
2.06101	1.43711	0.00004
2.06271	1.43708	0.00004
2.06441	1.43706	0.00004
2.06612	1.43704	0.00004
2.06782	1.43701	0.00004
2.06954	1.43699	0.00004
2.07125	1.43697	0.00004
2.07297	1.43694	0.00004
2.07469	1.43692	0.00004
2.07641	1.43689	0.00004
2.07814	1.43687	0.00004
2.07987	1.43685	0.00004
2.0816	1.43682	0.00004
2.08333	1.4368	0.00004
2.08507	1.43677	0.00004
2.08681	1.43675	0.00004
2.08855	1.43673	0.00004
2.0903	1.4367	0.00004
2.09205	1.43668	0.00004
2.0938	1.43665	0.00004
2.09556	1.43663	0.00004
2.09732	1.4366	0.00004
2.09908	1.43658	0.00004
2.10084	1.43655	0.00004
2.10261	1.43653	0.00005
2.10438	1.4365	0.00005
2.10615	1.43648	0.00005
2.10793	1.43645	0.00005
2.1097	1.43643	0.00005
2.11149	1.4364	0.00005
2.11327	1.43638	0.00005
2.11506	1.43635	0.00005
2.11685	1.43633	0.00005
2.11864	1.4363	0.00005
2.12044	1.43628	0.00005
2.12224	1.43625	0.00005
2.12404	1.43623	0.00005
2.12585	1.4362	0.00005
2.12766	1.43617	0.00005
2.12947	1.43615	0.00005
2.13129	1.43612	0.00005
2.13311	1.4361	0.00005
2.13493	1.43607	0.00005
2.13675	1.43604	0.00005
2.13858	1.43602	0.00005
2.14041	1.43599	0.00005
2.14225	1.43597	0.00005
2.14408	1.43594	0.00005
2.14592	1.43591	0.00005
2.14777	1.43589	0.00005
2.14961	1.43586	0.00005
2.15146	1.43583	0.00005
2.15332	1.43581	0.00005
2.15517	1.43578	0.00005
2.15703	1.43575	0.00005
2.15889	1.43573	0.00005
2.16076	1.4357	0.00005
2.16263	1.43567	0.00005
2.1645	1.43564	0.00005
2.16638	1.43562	0.00005
2.16826	1.43559	0.00005
2.17014	1.43556	0.00005
2.17202	1.43553	0.00005
2.17391	1.43551	0.00005
2.17581	1.43548	0.00005
2.1777	1.43545	0.00005
2.1796	1.43542	0.00005
2.1815	1.4354	0.00005
2.18341	1.43537	0.00005
2.18531	1.43534	0.00005
2.18723	1.43531	0.00005
2.18914	1.43528	0.00005
2.19106	1.43525	0.00005
2.19298	1.43523	0.00005
2.19491	1.4352	0.00005
2.19684	1.43517	0.00005
2.19877	1.43514	0.00005
2.2007	1.43511	0.00005
2.20264	1.43508	0.00005
2.20459	1.43505	0.00005
2.20653	1.43503	0.00005
2.20848	1.435	0.00005
2.21043	1.43497	0.00005
2.21239	1.43494	0.00005
2.21435	1.43491	0.00005
2.21631	1.43488	0.00005
2.21828	1.43485	0.00005
2.22025	1.43482	0.00005
2.22222	1.43479	0.00005
2.2242	1.43476	0.00005
2.22618	1.43473	0.00005
2.22816	1.4347	0.00005
2.23015	1.43467	0.00005
2.23214	1.43464	0.00005
2.23414	1.43461	0.00005
2.23614	1.43458	0.00005
2.23814	1.43455	0.00005
2.24014	1.43452	0.00005
2.24215	1.43449	0.00005
2.24417	1.43446	0.00006
2.24618	1.43443	0.00006
2.2482	1.4344	0.00006
2.25023	1.43437	0.00006
2.25225	1.43434	0.00006
2.25428	1.43431	0.00006
2.25632	1.43427	0.00006
2.25836	1.43424	0.00006
2.2604	1.43421	0.00006
2.26244	1.43418	0.00006
2.26449	1.43415	0.00006
2.26655	1.43412	0.00006
2.2686	1.43409	0.00006
2.27066	1.43405	0.00006
2.27273	1.43402	0.00006
2.2748	1.43399	0.00006
2.27687	1.43396	0.00006
2.27894	1.43393	0.00006
2.28102	1.43389	0.00006
2.28311	1.43386	0.00006
2.28519	1.43383	0.00006
2.28728	1.4338	0.00006
2.28938	1.43376	0.00006
2.29148	1.43373	0.00006
2.29358	1.4337	0.00006
2.29568	1.43367	0.00006
2.29779	1.43363	0.00006
2.29991	1.4336	0.00006
2.30203	1.43357	0.00006
2.30415	1.43353	0.00006
2.30627	1.4335	0.00006
2.3084	1.43347	0.00006
2.31054	1.43343	0.00006
2.31267	1.4334	0.00006
2.31481	1.43337	0.00006
2.31696	1.43333	0.00006
2.31911	1.4333	0.00006
2.32126	1.43326	0.00006
2.32342	1.43323	0.00006
2.32558	1.43319	0.00006
2.32775	1.43316	0.00006
2.32992	1.43313	0.00006
2.33209	1.43309	0.00006
2.33427	1.43306	0.00006
2.33645	1.43302	0.00006
2.33863	1.43299	0.00006
2.34082	1.43295	0.00006
2.34302	1.43292	0.00006
2.34522	1.43288	0.00006
2.34742	1.43285	0.00006
2.34962	1.43281	0.00006
2.35183	1.43278	0.00006
2.35405	1.43274	0.00006
2.35627	1.4327	0.00006
2.35849	1.43267	0.00006
2.36072	1.43263	0.00006
2.36295	1.4326	0.00006
2.36518	1.43256	0.00006
2.36742	1.43252	0.00006
2.36967	1.43249	0.00007
2.37192	1.43245	0.00007
2.37417	1.43241	0.00007
2.37643	1.43238	0.00007
2.37869	1.43234	0.00007
2.38095	1.4323	0.00007
2.38322	1.43227	0.00007
2.3855	1.43223	0.00007
2.38777	1.43219	0.00007
2.39006	1.43215	0.00007
2.39234	1.43212	0.00007
2.39464	1.43208	0.00007
2.39693	1.43204	0.00007
2.39923	1.432	0.00007
2.40154	1.43197	0.00007
2.40385	1.43193	0.00007
2.40616	1.43189	0.00007
2.40848	1.43185	0.00007
2.4108	1.43181	0.00007
2.41313	1.43177	0.00007
2.41546	1.43173	0.00007
2.41779	1.4317	0.00007
2.42014	1.43166	0.00007
2.42248	1.43162	0.00007
2.42483	1.43158	0.00007
2.42718	1.43154	0.00007
2.42954	1.4315	0.00007
2.43191	1.43146	0.00007
2.43427	1.43142	0.00007
2.43665	1.43138	0.00007
2.43902	1.43134	0.00007
2.44141	1.4313	0.00007
2.44379	1.43126	0.00007
2.44618	1.43122	0.00007
2.44858	1.43118	0.00007
2.45098	1.43114	0.00007
2.45339	1.4311	0.00007
2.4558	1.43106	0.00007
2.45821	1.43102	0.00007
2.46063	1.43097	0.00007
2.46305	1.43093	0.00007
2.46548	1.43089	0.00007
2.46792	1.43085	0.00007
2.47036	1.43081	0.00007
2.4728	1.43077	0.00007
2.47525	1.43072	0.00007
2.4777	1.43068	0.00007
2.48016	1.43064	0.00008
2.48262	1.4306	0.00008
2.48509	1.43056	0.00008
2.48756	1.43051	0.00008
2.49004	1.43047	0.00008
2.49252	1.43043	0.00008
2.49501	1.43038	0.00008
2.4975	1.43034	0.00008
2.5	1.4303	0.00008
2.5025	1.43025	0.00008
2.50501	1.43021	0.00008
2.50752	1.43017	0.00008
2.51004	1.43012	0.00008
2.51256	1.43008	0.00008
2.51509	1.43003	0.00008
2.51762	1.42999	0.00008
2.52016	1.42995	0.00008
2.5227	1.4299	0.00008
2.52525	1.42986	0.00008
2.52781	1.42981	0.00008
2.53036	1.42977	0.00008
2.53293	1.42972	0.00008
2.5355	1.42968	0.00008
2.53807	1.42963	0.00008
2.54065	1.42958	0.00008
2.54323	1.42954	0.00008
2.54582	1.42949	0.00008
2.54842	1.42945	0.00008
2.55102	1.4294	0.00008
2.55363	1.42935	0.00008
2.55624	1.42931	0.00008
2.55885	1.42926	0.00008
2.56148	1.42921	0.00008
2.5641	1.42917	0.00008
2.56674	1.42912	0.00008
2.56937	1.42907	0.00008
2.57202	1.42902	0.00008
2.57467	1.42898	0.00008
2.57732	1.42893	0.00008
2.57998	1.42888	0.00008
2.58264	1.42883	0.00009
2.58532	1.42878	0.00009
2.58799	1.42873	0.00009
2.59067	1.42869	0.00009
2.59336	1.42864	0.00009
2.59605	1.42859	0.00009
2.59875	1.42854	0.00009
2.60146	1.42849	0.00009
2.60417	1.42844	0.00009
2.60688	1.42839	0.00009
2.6096	1.42834	0.00009
2.61233	1.42829	0.00009
2.61506	1.42824	0.00009
2.6178	1.42819	0.00009
2.62055	1.42814	0.00009
2.62329	1.42809	0.00009
2.62605	1.42804	0.00009
2.62881	1.42799	0.00009
2.63158	1.42793	0.00009
2.63435	1.42788	0.00009
2.63713	1.42783	0.00009
2.63992	1.42778	0.00009
2.64271	1.42773	0.00009
2.6455	1.42767	0.00009
2.64831	1.42762	0.00009
2.65111	1.42757	0.00009
2.65393	1.42752	0.00009
2.65675	1.42746	0.00009
2.65957	1.42741	0.00009
2.66241	1.42736	0.00009
2.66525	1.4273	0.00009
2.66809	1.42725	0.00009
2.67094	1.4272	0.00009
2.6738	1.42714	0.00009
2.67666	1.42709	0.0001
2.67953	1.42703	0.0001
2.6824	1.42698	0.0001
2.68528	1.42692	0.0001
2.68817	1.42687	0.0001
2.69107	1.42681	0.0001
2.69397	1.42676	0.0001
2.69687	1.4267	0.0001
2.69978	1.42665	0.0001
2.7027	1.42659	0.0001
2.70563	1.42653	0.0001
2.70856	1.42648	0.0001
2.7115	1.42642	0.0001
2.71444	1.42636	0.0001
2.71739	1.42631	0.0001
2.72035	1.42625	0.0001
2.72331	1.42619	0.0001
2.72628	1.42614	0.0001
2.72926	1.42608	0.0001
2.73224	1.42602	0.0001
2.73523	1.42596	0.0001
2.73823	1.4259	0.0001
2.74123	1.42584	0.0001
2.74424	1.42578	0.0001
2.74725	1.42573	0.0001
2.75028	1.42567	0.0001
2.7533	1.42561	0.0001
2.75634	1.42555	0.0001
2.75938	1.42549	0.0001
2.76243	1.42543	0.0001
2.76549	1.42537	0.00011
2.76855	1.4253	0.00011
2.77162	1.42524	0.00011
2.77469	1.42518	0.00011
2.77778	1.42512	0.00011
2.78087	1.42506	0.00011
2.78396	1.425	0.00011
2.78707	1.42494	0.00011
2.79018	1.42487	0.00011
2.7933	1.42481	0.00011
2.79642	1.42475	0.00011
2.79955	1.42468	0.00011
2.80269	1.42462	0.00011
2.80584	1.42456	0.00011
2.80899	1.42449	0.00011
2.81215	1.42443	0.00011
2.81532	1.42437	0.00011
2.81849	1.4243	0.00011
2.82167	1.42424	0.00011
2.82486	1.42417	0.00011
2.82805	1.42411	0.00011
2.83126	1.42404	0.00011
2.83447	1.42398	0.00011
2.83768	1.42391	0.00011
2.84091	1.42384	0.00011
2.84414	1.42378	0.00012
2.84738	1.42371	0.00012
2.85063	1.42364	0.00012
2.85388	1.42358	0.00012
2.85714	1.42351	0.00012
2.86041	1.42344	0.00012
2.86369	1.42337	0.00012
2.86697	1.4233	0.00012
2.87026	1.42324	0.00012
2.87356	1.42317	0.00012
2.87687	1.4231	0.00012
2.88018	1.42303	0.00012
2.88351	1.42296	0.00012
2.88684	1.42289	0.00012
2.89017	1.42282	0.00012
2.89352	1.42275	0.00012
2.89687	1.42268	0.00012
2.90023	1.42261	0.00012
2.9036	1.42254	0.00012
2.90698	1.42246	0.00012
2.91036	1.42239	0.00012
2.91375	1.42232	0.00012
2.91715	1.42225	0.00012
2.92056	1.42218	0.00013
2.92398	1.4221	0.00013
2.9274	1.42203	0.00013
2.93083	1.42196	0.00013
2.93427	1.42188	0.00013
2.93772	1.42181	0.00013
2.94118	1.42173	0.00013
2.94464	1.42166	0.00013
2.94811	1.42158	0.00013
2.95159	1.42151	0.00013
2.95508	1.42143	0.00013
2.95858	1.42136	0.00013
2.96209	1.42128	0.00013
2.9656	1.4212	0.00013
2.96912	1.42113	0.00013
2.97265	1.42105	0.00013
2.97619	1.42097	0.00013
2.97974	1.42089	0.00013
2.98329	1.42082	0.00013
2.98686	1.42074	0.00013
2.99043	1.42066	0.00013
2.99401	1.42058	0.00014
2.9976	1.4205	0.00014
3.0012	1.42042	0.00014
3.00481	1.42034	0.00014
3.00842	1.42026	0.00014
3.01205	1.42018	0.00014
3.01568	1.4201	0.00014
3.01932	1.42002	0.00014
3.02297	1.41994	0.00014
3.02663	1.41985	0.00014
3.0303	1.41977	0.00014
3.03398	1.41969	0.00014
3.03767	1.41961	0.00014
3.04136	1.41952	0.00014
3.04507	1.41944	0.00014
3.04878	1.41935	0.00014
3.0525	1.41927	0.00014
3.05623	1.41918	0.00014
3.05998	1.4191	0.00014
3.06373	1.41901	0.00015
3.06748	1.41893	0.00015
3.07125	1.41884	0.00015
3.07503	1.41875	0.00015
3.07882	1.41867	0.00015
3.08261	1.41858	0.00015
3.08642	1.41849	0.00015
3.09023	1.4184	0.00015
3.09406	1.41832	0.00015
3.09789	1.41823	0.00015
3.10174	1.41814	0.00015
3.10559	1.41805	0.00015
3.10945	1.41796	0.00015
3.11333	1.41787	0.00015
3.11721	1.41778	0.00015
3.1211	1.41769	0.00015
3.125	1.41759	0.00015
3.12891	1.4175	0.00016
3.13283	1.41741	0.00016
3.13676	1.41732	0.00016
3.1407	1.41722	0.00016
3.14465	1.41713	0.00016
3.14861	1.41704	0.00016
3.15259	1.41694	0.00016
3.15657	1.41685	0.00016
3.16056	1.41675	0.00016
3.16456	1.41666	0.00016
3.16857	1.41656	0.00016
3.17259	1.41646	0.00016
3.17662	1.41637	0.00016
3.18066	1.41627	0.00016
3.18471	1.41617	0.00016
3.18878	1.41607	0.00017
